t (s),V (mV)
0,14.4116
0.972,14.4044
1.91,14.3953
2.85,14.3867
3.822,14.3756
4.822,14.3643
5.822,14.3544
6.823,14.3445
7.822,14.3315
8.822,14.3244
9.823,14.3086
10.823,14.301
11.823,14.289
12.822,14.2776
13.822,14.2664
14.822,14.2556
15.823,14.2443
16.823,14.2326
17.823,14.2212
18.823,14.2111
19.823,14.1992
20.823,14.1869
21.822,14.1744
22.822,14.1638
23.822,14.1516
24.823,14.1407
25.823,14.1292
26.823,14.1168
27.823,14.1052
28.822,14.0931
29.822,14.0815
30.822,14.0694
31.822,14.0581
32.823,14.0449
33.822,14.0344
34.822,14.0204
35.822,14.0107
36.823,13.9988
37.823,13.9878
38.822,13.9748
39.822,13.9644
40.822,13.9518
41.823,13.9404
42.823,13.9288
43.823,13.918
44.823,13.905
45.822,13.8957
46.822,13.8838
47.822,13.8729
48.822,13.8604
49.823,13.8501
50.823,13.8385
51.822,13.8277
52.822,13.8171
53.822,13.8049
54.823,13.7944
55.823,13.7823
56.822,13.772
57.822,13.7597
58.822,13.7489
59.823,13.737
60.823,13.7262
61.822,13.7158
62.822,13.705
63.823,13.693
64.823,13.6825
65.822,13.672
66.822,13.6606
67.823,13.649
68.823,13.638
69.822,13.628
70.822,13.616
71.823,13.6057
72.822,13.5944
73.823,13.5835
74.823,13.5719
75.823,13.5611
76.822,13.5508
77.822,13.5386
78.822,13.5281
79.823,13.5168
80.822,13.5064
81.822,13.4942
82.822,13.4843
83.823,13.4725
84.822,13.4624
85.822,13.4511
86.823,13.4407
87.822,13.4305
88.822,13.4196
89.823,13.408
90.823,13.3973
91.822,13.3873
92.822,13.3762
93.823,13.3656
94.823,13.3548
95.822,13.3444
96.823,13.3337
97.823,13.3229
98.822,13.3119
99.823,13.3022
100.823,13.2915
101.822,13.2809
102.822,13.2712
103.823,13.2601
104.822,13.2501
105.823,13.2396
106.823,13.2286
107.822,13.2187
108.822,13.2082
109.823,13.1977
110.822,13.1876
111.823,13.1763
112.823,13.1659
113.823,13.1568
114.823,13.1453
115.822,13.1351
116.823,13.1252
117.822,13.1148
118.823,13.1042
119.822,13.0937
120.822,13.0835
121.823,13.0729
122.823,13.0631
123.822,13.0527
124.823,13.042
125.823,13.0319
126.822,13.0213
127.823,13.0114
128.822,13.0011
129.822,12.9911
130.823,12.9806
131.822,12.9702
132.822,12.9604
133.823,12.9503
134.822,12.9394
135.823,12.9299
136.822,12.9198
137.823,12.909
138.823,12.8989
139.822,12.8888
140.822,12.8789
141.823,12.869
142.822,12.858
143.822,12.848
144.823,12.8382
145.822,12.8289
146.823,12.8202
147.822,12.8083
148.822,12.7983
149.823,12.7877
150.822,12.7786
151.822,12.769
152.823,12.7589
153.822,12.7484
154.822,12.7386
155.823,12.7289
156.822,12.719
157.823,12.7091
158.822,12.6999
159.823,12.6891
160.822,12.68
161.822,12.6698
162.823,12.6593
163.823,12.6489
164.823,12.6401
165.823,12.6296
166.822,12.6208
167.823,12.6101
168.822,12.6009
169.823,12.5904
170.822,12.5807
171.823,12.5713
172.822,12.5618
173.822,12.5515
174.823,12.5415
175.822,12.5324
176.822,12.5224
177.823,12.5124
178.822,12.5038
179.823,12.4934
180.822,12.4841
181.823,12.4738
182.822,12.4645
183.823,12.4547
184.823,12.4441
185.823,12.4353
186.823,12.4245
187.823,12.416
188.823,12.4063
189.822,12.3967
190.823,12.3865
191.822,12.3777
192.823,12.3688
193.822,12.3593
194.823,12.3496
195.823,12.3395
196.822,12.3309
197.823,12.32
198.823,12.3111
199.822,12.3011
200.823,12.2915
201.822,12.2823
202.822,12.2732
203.823,12.2635
204.822,12.2533
205.823,12.2433
206.823,12.2347
207.822,12.2248
208.823,12.2165
209.822,12.2069
210.823,12.1979
211.822,12.1882
212.823,12.1797
213.822,12.1702
214.822,12.1611
215.823,12.1525
216.822,12.1435
217.823,12.1348
218.823,12.1263
219.823,12.1167
220.822,12.1069
221.823,12.0984
222.822,12.0893
223.823,12.08
224.822,12.0716
225.823,12.0632
226.822,12.0532
227.822,12.0449
228.823,12.0364
229.822,12.0271
230.823,12.0186
231.822,12.0096
232.823,12.001
233.823,11.9895
234.823,11.9836
235.822,11.9745
236.823,11.9664
237.822,11.9571
238.823,11.9493
239.823,11.9389
240.822,11.9302
241.823,11.9265
242.823,11.9127
243.823,11.904
244.822,11.895
245.823,11.8858
246.822,11.8785
247.823,11.8682
248.823,11.8596
249.823,11.8497
250.822,11.841
251.822,11.8315
252.823,11.8228
253.823,11.8141
254.822,11.8053
255.823,11.7965
256.823,11.7877
257.822,11.7791
258.822,11.77
259.823,11.7618
260.822,11.7523
261.823,11.7434
262.822,11.736
263.822,11.727
264.822,11.7185
265.823,11.7094
266.822,11.7005
267.823,11.6924
268.822,11.6835
269.822,11.6741
270.823,11.666
271.822,11.6577
272.822,11.6483
273.822,11.64
274.822,11.6318
275.823,11.6231
276.822,11.6143
277.823,11.6056
278.822,11.5973
279.823,11.5885
280.822,11.5797
281.822,11.5715
282.823,11.5632
283.822,11.5537
284.823,11.5458
285.822,11.5361
286.822,11.5276
287.822,11.5198
288.823,11.5106
289.822,11.5018
290.822,11.4932
291.822,11.4844
292.823,11.4759
293.822,11.4675
294.822,11.4583
295.822,11.4501
296.822,11.4412
297.823,11.4329
298.822,11.4247
299.823,11.4175
300.822,11.4078
301.823,11.3997
302.823,11.3911
303.822,11.3832
304.822,11.3743
305.823,11.3668
306.823,11.3581
307.822,11.3489
308.823,11.3409
309.822,11.3326
310.823,11.3238
311.823,11.3148
312.822,11.3074
313.823,11.2999
314.823,11.2909
315.822,11.282
316.822,11.2731
317.823,11.2644
318.823,11.2565
319.823,11.2481
320.822,11.2401
321.823,11.2323
322.822,11.2238
323.822,11.2159
324.823,11.2073
325.822,11.1986
326.823,11.1912
327.822,11.1843
328.822,11.1765
329.823,11.1675
330.822,11.1612
331.822,11.1539
332.822,11.1455
333.822,11.1378
334.823,11.1293
335.822,11.1216
336.823,11.1136
337.822,11.1059
338.823,11.0974
339.823,11.0903
340.822,11.0827
341.823,11.0736
342.823,11.0662
343.822,11.059
344.822,11.0514
345.823,11.0427
346.822,11.0363
347.823,11.0271
348.822,11.0196
349.822,11.0114
350.823,11.0036
351.823,10.9968
352.822,10.9879
353.823,10.9801
354.822,10.9718
355.822,10.9638
356.823,10.9558
357.822,10.9479
358.822,10.9407
359.823,10.9323
360.822,10.9241
361.823,10.9172
362.822,10.9087
363.822,10.9017
364.823,10.8934
365.822,10.8853
366.822,10.8777
367.823,10.8691
368.823,10.8613
369.823,10.8536
370.822,10.8458
371.823,10.8379
372.822,10.8294
373.822,10.8216
374.823,10.8129
375.822,10.8055
376.823,10.7971
377.823,10.7895
378.823,10.7811
379.823,10.7736
380.823,10.7658
381.823,10.7577
382.822,10.75
383.822,10.7426
384.823,10.7344
385.822,10.7267
386.823,10.7195
387.823,10.7115
388.822,10.7024
389.823,10.695
390.823,10.687
391.822,10.6792
392.822,10.671
393.822,10.6604
394.823,10.6555
395.823,10.6484
396.823,10.6396
397.822,10.6326
398.823,10.6255
399.822,10.6178
400.822,10.6102
401.822,10.6027
402.821,10.5963
403.821,10.5883
404.822,10.5814
405.822,10.5738
406.821,10.5669
407.821,10.5602
408.822,10.5517
409.821,10.5447
410.821,10.5372
411.822,10.5295
412.822,10.5234
413.821,10.5144
414.822,10.5068
415.821,10.4994
416.821,10.4931
417.822,10.4857
418.821,10.4772
419.821,10.4706
420.821,10.4623
421.822,10.4556
422.822,10.4484
423.821,10.4403
424.821,10.4328
425.822,10.4259
426.821,10.4188
427.821,10.4109
428.822,10.4038
429.821,10.3962
430.821,10.3893
431.821,10.3814
432.822,10.3746
433.821,10.3666
434.821,10.3588
435.821,10.3521
436.822,10.3449
437.822,10.3378
438.821,10.3299
439.822,10.3226
440.821,10.316
441.821,10.3083
442.822,10.3007
443.821,10.2938
444.821,10.2853
445.822,10.2791
446.821,10.2723
447.821,10.2646
448.822,10.2571
449.822,10.2504
450.821,10.2423
451.821,10.2354
452.821,10.2288
453.822,10.2224
454.821,10.2144
455.821,10.2079
456.822,10.2002
457.821,10.1936
458.821,10.1861
459.822,10.1798
460.822,10.1722
461.821,10.1647
462.821,10.1587
463.822,10.1512
464.822,10.1438
465.822,10.1375
466.821,10.13
467.821,10.1233
468.821,10.1163
469.822,10.1093
470.822,10.1025
471.822,10.0951
472.822,10.0872
473.822,10.0802
474.822,10.0738
475.822,10.0664
476.822,10.0586
477.822,10.0514
478.822,10.0451
479.822,10.0386
480.821,10.0333
481.821,10.0226
482.821,10.0174
483.821,10.01
484.821,10.0021
485.822,9.9953
486.823,9.9865
487.822,9.9823
488.822,9.9721
489.822,9.9658
490.822,9.9596
491.823,9.9507
492.822,9.9463
493.823,9.9382
494.823,9.9309
495.823,9.9244
496.823,9.9166
497.823,9.9103
498.822,9.9035
499.822,9.8962
500.823,9.8897
501.823,9.8822
502.823,9.8756
503.823,9.8683
504.823,9.862
505.823,9.8548
506.823,9.8483
507.823,9.8399
508.823,9.8344
509.822,9.8273
510.822,9.8205
511.822,9.813
512.822,9.8068
513.822,9.8012
514.822,9.7936
515.822,9.7865
516.822,9.78
517.822,9.7733
518.822,9.7668
519.823,9.7595
520.822,9.7536
521.823,9.747
522.822,9.7394
523.822,9.7329
524.822,9.7256
525.822,9.7174
526.822,9.712
527.822,9.7053
528.822,9.6977
529.822,9.6914
530.823,9.6845
531.823,9.6778
532.823,9.6719
533.823,9.6644
534.823,9.6572
535.822,9.6513
536.822,9.6447
537.822,9.6379
538.822,9.63
539.822,9.6242
540.823,9.6171
541.823,9.6101
542.822,9.6017
543.822,9.5976
